Time (ms),Light,Current (pA)
0,0,-6.56681
2,0,-6.69841
4,0,-6.66752
6,0,-6.65375
8,0,-6.81807
10,0,-7.01168
12,0,-6.30723
14,0,-5.78809
16,0,-5.74771
18,0,-5.72428
20,0,-6.1141
22,0,-6.01977
24,0,-6.05914
26,0,-6.53873
28,0,-6.16244
30,0,-5.61212
32,0,-6.075
34,0,-6.12402
36,0,-5.78921
38,0,-5.50518
40,0,-5.78296
42,0,-5.77638
44,0,-6.13491
46,0,-5.95069
48,0,-5.92944
50,0,-6.288
52,0,-5.94274
54,0,-5.6131
56,0,-5.56681
58,0,-5.49811
60,0,-5.822
62,0,-5.72339
64,0,-5.87601
66,0,-5.8149
68,0,-5.78842
70,0,-5.54944
72,0,-5.25101
74,0,-5.49097
76,0,-5.12442
78,0,-4.73564
80,0,-4.96617
82,0,-5.38568
84,0,-5.48465
86,0,-5.37402
88,0,-5.50465
90,0,-5.41404
92,0,-5.02688
94,0,-4.6401
96,0,-4.28077
98,0,-4.59283
100,0,-4.50281
102,0,-4.36719
104,0,-4.86892
106,0,-5.23907
108,0,-5.11087
110,0,-5.34115
112,0,-5.31565
114,0,-5.32338
116,0,-5.40589
118,0,-5.13437
120,0,-5.71951
122,0,-5.77793
124,0,-5.50505
126,0,-5.61892
128,0,-5.84064
130,0,-5.76089
132,0,-5.58988
134,0,-5.56256
136,0,-5.48967
138,0,-5.49195
140,0,-6.09288
142,0,-5.93854
144,0,-6.11009
146,0,-5.94169
148,0,-5.87464
150,0,-5.71034
152,0,-5.5299
154,0,-5.79926
156,0,-5.80875
158,0,-5.61864
160,0,-5.49195
162,0,-5.90444
164,0,-5.94189
166,0,-5.94646
168,0,-6.52124
170,0,-6.26796
172,0,-6.18612
174,0,-5.80433
176,0,-5.88007
178,0,-5.55821
180,0,-5.63754
182,0,-5.94785
184,0,-6.37622
186,0,-6.50445
188,0,-6.2632
190,0,-6.0397
192,0,-5.80847
194,0,-5.56057
196,0,-5.53832
198,0,-5.41064
200,1,-5.88999
202,1,-6.557
204,1,-6.55631
206,1,-6.45156
208,1,-8.52253
210,1,-7.41059
212,1,-6.20578
214,1,-5.78061
216,1,-5.42715
218,1,-5.45459
220,1,-5.73289
222,1,-5.96311
224,1,-6.02174
226,1,-6.0998
228,1,-6.3726
230,1,-7.66688
232,1,-7.39077
234,1,-6.59311
236,1,-6.62048
238,1,-7.4329
240,1,-9.77706
242,1,-13.85033
244,1,-12.9743
246,1,-15.49341
248,1,-12.86028
250,1,-15.16082
252,1,-20.0478
254,1,-20.69353
256,1,-18.67941
258,1,-15.27929
260,1,-21.22949
262,1,-29.50081
264,1,-33.77777
266,1,-23.44812
268,1,-15.26251
270,1,-21.37177
272,1,-31.52953
274,1,-28.11968
276,1,-26.79716
278,1,-36.15503
280,1,-30.03017
282,1,-24.39949
284,1,-18.5728
286,1,-13.386
288,1,-19.67265
290,1,-33.56081
292,1,-30.39963
294,1,-21.63173
296,1,-17.57647
298,1,-22.56931
300,1,-26.60324
302,1,-20.33204
304,1,-17.92433
306,1,-17.06628
308,1,-14.48954
310,1,-16.38374
312,1,-16.618
314,1,-16.65087
316,1,-16.46774
318,1,-13.73913
320,1,-23.61683
322,1,-32.45386
324,1,-17.18523
326,1,-12.82372
328,1,-10.13375
330,1,-10.03152
332,1,-11.87342
334,1,-17.75187
336,1,-12.16275
338,1,-8.51092
340,1,-8.25799
342,1,-7.71803
344,1,-8.10147
346,1,-8.20815
348,1,-9.93316
350,1,-10.08418
352,1,-7.75332
354,1,-7.12974
356,1,-6.94228
358,1,-6.98057
360,1,-7.47972
362,1,-7.52345
364,1,-7.39234
366,1,-7.25064
368,1,-7.43435
370,1,-7.07291
372,1,-6.77779
374,1,-6.44393
376,1,-6.12582
378,1,-6.00651
380,1,-5.99092
382,1,-5.88639
384,1,-6.02769
386,1,-6.21052
388,1,-6.4319
390,1,-5.73624
392,1,-5.5577
394,1,-5.32896
396,1,-4.9725
398,1,-5.11394
400,1,-5.44177
402,1,-5.85089
404,1,-5.54065
406,1,-5.66064
408,1,-5.85977
410,1,-5.50065
412,1,-5.10472
414,1,-4.84224
416,1,-4.85969
418,1,-4.40751
420,1,-4.2906
422,1,-4.908
424,1,-4.93176
426,1,-4.86033
428,1,-5.12015
430,1,-5.07309
432,1,-4.85683
434,1,-4.81339
436,1,-4.45529
438,1,-4.29423
440,1,-4.51339
442,1,-4.47256
444,1,-4.77546
446,1,-5.05922
448,1,-4.98073
450,1,-4.95084
452,1,-5.09008
454,1,-4.86637
456,1,-4.749
458,1,-4.56613
460,1,-4.59458
462,1,-4.7584
464,1,-4.32321
466,1,-4.49836
468,1,-4.27875
470,1,-4.34562
472,1,-3.92638
474,1,-3.67555
476,1,-3.97079
478,1,-3.79665
480,1,-3.92375
482,1,-3.66524
484,1,-3.68091
486,1,-3.63759
488,1,-3.94026
490,1,-3.82581
492,1,-3.54261
494,1,-3.6085
496,1,-3.62997
498,1,-4.00562
500,1,-4.48936
502,1,-4.4127
504,1,-4.28829
506,1,-4.0777
508,1,-4.22495
510,1,-4.13389
512,1,-3.88188
514,1,-3.61082
516,1,-3.95565
518,1,-4.41373
520,1,-4.19163
522,1,-4.24422
524,1,-4.79021
526,1,-4.51507
528,1,-4.2138
530,1,-4.37629
532,1,-4.35915
534,1,-4.20367
536,1,-4.27555
538,1,-4.23208
540,1,-4.70972
542,1,-4.95238
544,1,-4.57361
546,1,-5.04461
548,1,-5.22845
550,1,-4.92759
552,1,-4.52229
554,1,-4.52024
556,1,-4.74453
558,1,-4.63741
560,1,-4.80444
562,1,-5.21924
564,1,-5.24767
566,1,-5.12317
568,1,-4.86498
570,1,-4.781
572,1,-4.62399
574,1,-4.58467
576,1,-4.55259
578,1,-4.72045
580,1,-4.64152
582,1,-4.871
584,1,-4.91911
586,1,-4.89972
588,1,-4.80787
590,1,-4.50476
592,1,-4.34625
594,1,-4.63916
596,1,-4.38245
598,1,-4.74334
600,1,-5.36954
602,1,-5.68298
604,1,-6.0497
606,1,-5.72435
608,1,-5.73188
610,1,-5.53158
612,1,-5.26483
614,1,-5.26528
616,1,-5.3315
618,1,-5.38781
620,1,-5.47461
622,1,-5.55866
624,1,-5.84036
626,1,-5.79467
628,1,-5.7
630,1,-5.63505
632,1,-5.28469
634,1,-5.27324
636,1,-5.53539
638,1,-5.73769
640,1,-5.6116
642,1,-5.66894
644,1,-5.99528
646,1,-6.02022
648,1,-6.35371
650,1,-6.05807
652,1,-6.25108
654,1,-5.98689
656,1,-5.92157
658,1,-6.42045
660,1,-7.53818
662,1,-10.18884
664,1,-9.11917
666,1,-7.96821
668,1,-8.25039
670,1,-7.48604
672,1,-8.66522
674,1,-8.21314
676,1,-7.34443
678,1,-7.43121
680,1,-7.42025
682,1,-7.15112
684,1,-7.28667
686,1,-7.22333
688,1,-7.61313
690,1,-7.93468
692,1,-6.93613
694,1,-6.76493
696,1,-6.77553
698,1,-6.64572
700,1,-7.04207
702,1,-7.32497
704,1,-7.25814
706,1,-7.26837
708,1,-8.58614
710,1,-7.72642
712,1,-7.29228
714,1,-7.37414
716,1,-7.1754
718,1,-7.03846
720,1,-6.6756
722,1,-7.21519
724,1,-7.18573
726,1,-6.86193
728,1,-7.20805
730,1,-7.16199
732,1,-6.60348
734,1,-6.41206
736,1,-6.24438
738,1,-6.37841
740,1,-6.55497
742,1,-6.37421
744,1,-6.36962
746,1,-6.49505
748,1,-6.15483
750,1,-5.6746
752,1,-5.37699
754,1,-5.17102
756,1,-5.13869
758,1,-5.18835
760,1,-5.19307
762,1,-5.48575
764,1,-5.47805
766,1,-5.79105
768,1,-6.00332
770,1,-6.06855
772,1,-5.21698
774,1,-5.2915
776,1,-4.94889
778,1,-4.86083
780,1,-5.07427
782,1,-5.22906
784,1,-5.23287
786,1,-5.12803
788,1,-5.42389
790,1,-5.55066
792,1,-5.18345
794,1,-4.98345
796,1,-4.9795
798,1,-4.98035
800,1,-5.30352
802,1,-5.50602
804,1,-5.55735
806,1,-5.82069
808,1,-6.19917
810,1,-5.9864
812,1,-5.75429
814,1,-6.00881
816,1,-5.77241
818,1,-5.68998
820,1,-6.15613
822,1,-6.32094
824,1,-6.65659
826,1,-6.56629
828,1,-6.83004
830,1,-7.11115
832,1,-6.70429
834,1,-7.0015
836,1,-7.24568
838,1,-7.19818
840,1,-7.23446
842,1,-7.47088
844,1,-7.40461
846,1,-7.86866
848,1,-7.24047
850,1,-7.40373
852,1,-7.54541
854,1,-7.65407
856,1,-8.26135
858,1,-7.84965
860,1,-7.57203
862,1,-7.92272
864,1,-8.33932
866,1,-8.50447
868,1,-8.4625
870,1,-7.77137
872,1,-7.18054
874,1,-7.38292
876,1,-7.29264
878,1,-7.46265
880,1,-8.01816
882,1,-8.1012
884,1,-8.14581
886,1,-8.03001
888,1,-7.4995
890,1,-6.86267
892,1,-6.5964
894,1,-6.48837
896,1,-6.16328
898,1,-6.39407
900,1,-6.53363
902,1,-7.1622
904,1,-7.21047
906,1,-7.02985
908,1,-6.64861
910,1,-6.25723
912,1,-5.93187
914,1,-5.43019
916,1,-5.98663
918,1,-6.15679
920,1,-6.09605
922,1,-6.66976
924,1,-6.76223
926,1,-8.09364
928,1,-8.34592
930,1,-6.86098
932,1,-6.23742
934,1,-6.21653
936,1,-6.14523
938,1,-6.01411
940,1,-6.07589
942,1,-6.35068
944,1,-6.55111
946,1,-6.97979
948,1,-7.04671
950,1,-7.11378
952,1,-7.20837
954,1,-6.74992
956,1,-6.29869
958,1,-6.16056
960,1,-6.38478
962,1,-6.4963
964,1,-6.67908
966,1,-6.8837
968,1,-6.92946
970,1,-6.687
972,1,-6.72005
974,1,-6.85994
976,1,-6.68812
978,1,-6.42672
980,1,-6.17377
982,1,-6.51872
984,1,-7.24428
986,1,-7.38597
988,1,-7.62893
990,1,-7.89762
992,1,-7.57719
994,1,-7.66904
996,1,-7.78064
998,1,-7.39055
1000,1,-7.22692
1002,1,-7.6295
1004,1,-7.57181
1006,1,-7.39276
1008,1,-7.78487
1010,1,-8.48503
1012,1,-8.73148
1014,1,-10.26141
1016,1,-9.22001
1018,1,-9.07813
1020,1,-8.26163
1022,1,-8.22153
1024,1,-9.03046
1026,1,-9.4079
1028,1,-8.11134
1030,1,-7.62437
1032,1,-7.06099
1034,1,-7.16732
1036,1,-6.81566
1038,1,-7.1455
1040,1,-7.35123
1042,1,-7.02052
1044,1,-6.85559
1046,1,-7.04322
1048,1,-6.68861
1050,1,-6.55488
1052,1,-6.20396
1054,1,-6.20428
1056,1,-6.41156
1058,1,-6.64095
1060,1,-7.29599
1062,1,-8.87418
1064,1,-7.61187
1066,1,-7.41268
1068,1,-7.52036
1070,1,-7.09901
1072,1,-6.4736
1074,1,-6.63004
1076,1,-6.82105
1078,1,-6.76624
1080,1,-6.52832
1082,1,-6.71001
1084,1,-6.78538
1086,1,-6.26472
1088,1,-6.38065
1090,1,-6.42605
1092,1,-5.84967
1094,1,-5.81271
1096,1,-5.86028
1098,1,-6.22009
1100,1,-6.1269
1102,1,-6.0153
1104,1,-5.98155
1106,1,-6.33138
1108,1,-6.17237
1110,1,-6.09236
1112,1,-6.01819
1114,1,-6.16983
1116,1,-6.58766
1118,1,-6.54827
1120,1,-6.87825
1122,1,-7.6639
1124,1,-7.53362
1126,1,-7.4888
1128,1,-8.02114
1130,1,-7.82493
1132,1,-9.19775
1134,1,-7.75818
1136,1,-7.34765
1138,1,-7.66555
1140,1,-8.01634
1142,1,-7.91256
1144,1,-7.61271
1146,1,-7.11272
1148,1,-7.15375
1150,1,-6.85788
1152,1,-6.76233
1154,1,-6.96004
1156,1,-6.75312
1158,1,-6.92118
1160,1,-7.5669
1162,1,-7.59082
1164,1,-8.03333
1166,1,-8.13379
1168,1,-8.23667
1170,1,-8.51811
1172,1,-8.75914
1174,1,-6.69087
1176,1,-6.85875
1178,1,-6.49857
1180,1,-6.84287
1182,1,-6.99413
1184,1,-7.24402
1186,1,-7.23964
1188,1,-7.28198
1190,1,-7.10639
1192,1,-6.6752
1194,1,-6.42265
1196,1,-6.10826
1198,1,-6.11966
1200,1,-6.84526
1202,1,-6.36084
1204,1,-6.28315
1206,1,-6.6764
1208,1,-6.43354
1210,1,-6.37367
1212,1,-6.07271
1214,1,-5.98912
1216,1,-6.1755
1218,1,-6.47065
1220,1,-6.34406
1222,1,-6.44064
1224,1,-6.45169
1226,1,-6.4526
1228,1,-6.56573
1230,1,-6.76692
1232,1,-6.737
1234,1,-6.34716
1236,1,-5.92767
1238,1,-6.15859
1240,1,-6.62539
1242,1,-6.99221
1244,1,-7.01123
1246,1,-7.24902
1248,1,-7.59483
1250,1,-7.21156
1252,1,-6.96302
1254,1,-7.10125
1256,1,-7.13521
1258,1,-6.95968
1260,1,-7.04753
1262,1,-7.22387
1264,1,-7.23294
1266,1,-8.26419
1268,1,-8.39782
1270,1,-7.32865
1272,1,-7.17127
1274,1,-6.74018
1276,1,-6.57309
1278,1,-6.65994
1280,1,-6.69705
1282,1,-6.87492
1284,1,-6.93871
1286,1,-7.21473
1288,1,-7.43098
1290,1,-7.3528
1292,1,-7.12366
1294,1,-6.97793
1296,1,-7.11931
1298,1,-6.82797
1300,1,-7.04569
1302,1,-7.61155
1304,1,-7.69954
1306,1,-7.28669
1308,1,-7.2431
1310,1,-7.04915
1312,1,-6.65823
1314,1,-7.28337
1316,1,-7.12372
1318,1,-7.56168
1320,1,-7.88131
1322,1,-7.80361
1324,1,-7.99699
1326,1,-7.91573
1328,1,-8.78697
1330,1,-7.60762
1332,1,-6.6106
1334,1,-6.39289
1336,1,-6.60815
1338,1,-6.8797
1340,1,-7.33999
1342,1,-7.47524
1344,1,-7.77385
1346,1,-7.72925
1348,1,-7.31252
1350,1,-7.13473
1352,1,-7.04041
1354,1,-6.99478
1356,1,-7.06492
1358,1,-7.02213
1360,1,-6.89247
1362,1,-7.48115
1364,1,-7.32421
1366,1,-6.8853
1368,1,-6.85266
1370,1,-6.54856
1372,1,-6.07617
1374,1,-6.44499
1376,1,-6.48268
1378,1,-6.09725
1380,1,-6.28364
1382,1,-6.51341
1384,1,-6.67503
1386,1,-6.18876
1388,1,-6.33098
1390,1,-6.45981
1392,1,-5.82325
1394,1,-5.81522
1396,1,-6.06805
1398,1,-6.16341
1400,1,-6.36051
1402,1,-6.44528
1404,1,-6.31033
1406,1,-6.29938
1408,1,-6.30545
1410,1,-5.71367
1412,1,-5.52424
1414,1,-5.42644
1416,1,-5.23092
1418,1,-5.5491
1420,1,-5.85604
1422,1,-6.21597
1424,1,-6.24383
1426,1,-6.38679
1428,1,-6.52544
1430,1,-6.56579
1432,1,-6.54411
1434,1,-6.03087
1436,1,-5.79676
1438,1,-5.7679
1440,1,-5.82763
1442,1,-5.8751
1444,1,-5.60408
1446,1,-5.89284
1448,1,-5.9072
1450,1,-5.66686
1452,1,-5.6308
1454,1,-5.86573
1456,1,-5.96558
1458,1,-6.00671
1460,1,-6.53794
1462,1,-7.33126
1464,1,-8.95127
1466,1,-8.39808
1468,1,-6.75838
1470,1,-6.22528
1472,1,-6.06755
1474,1,-6.59435
1476,1,-6.4163
1478,1,-6.20242
1480,1,-6.33435
1482,1,-6.88009
1484,1,-7.07022
1486,1,-7.29636
1488,1,-7.47801
1490,1,-7.27812
1492,1,-7.33572
1494,1,-7.48677
1496,1,-7.68978
1498,1,-7.32928
1500,1,-7.22841
1502,1,-6.84848
1504,1,-7.3684
1506,1,-7.63373
1508,1,-7.442
1510,1,-6.86152
1512,1,-6.55335
1514,1,-6.45133
1516,1,-6.20293
1518,1,-6.35005
1520,1,-6.5368
1522,1,-6.54004
1524,1,-6.42833
1526,1,-6.56544
1528,1,-6.25137
1530,1,-5.94778
1532,1,-5.62779
1534,1,-4.81321
1536,1,-5.06844
1538,1,-5.04595
1540,1,-4.90054
1542,1,-5.13761
1544,1,-5.79335
1546,1,-5.81722
1548,1,-6.29682
1550,1,-6.38647
1552,1,-6.36488
1554,1,-6.36863
1556,1,-6.33531
1558,1,-6.0141
1560,1,-6.21558
1562,1,-6.1469
1564,1,-5.57559
1566,1,-5.87262
1568,1,-6.3498
1570,1,-5.73856
1572,1,-5.42426
1574,1,-5.57264
1576,1,-5.41938
1578,1,-5.32392
1580,1,-5.87134
1582,1,-6.14489
1584,1,-5.99115
1586,1,-6.16234
1588,1,-5.94864
1590,1,-6.39498
1592,1,-5.7804
1594,1,-5.93828
1596,1,-5.96441
1598,1,-5.89362
1600,1,-6.4944
1602,1,-6.10546
1604,1,-6.12407
1606,1,-6.10868
1608,1,-6.53938
1610,1,-6.33896
1612,1,-5.97867
1614,1,-6.41099
1616,1,-6.87351
1618,1,-7.00621
1620,1,-7.10458
1622,1,-7.16754
1624,1,-6.68249
1626,1,-6.42569
1628,1,-6.29408
1630,1,-6.03149
1632,1,-5.86389
1634,1,-6.32994
1636,1,-6.30721
1638,1,-6.61482
1640,1,-6.7035
1642,1,-7.29229
1644,1,-7.58456
1646,1,-7.54108
1648,1,-6.99455
1650,1,-6.63439
1652,1,-6.78622
1654,1,-7.25272
1656,1,-6.71861
1658,1,-6.97008
1660,1,-6.99418
1662,1,-7.02368
1664,1,-6.91722
1666,1,-6.98207
1668,1,-6.41476
1670,1,-5.95572
1672,1,-5.34445
1674,1,-5.18136
1676,1,-5.1218
1678,1,-5.0273
1680,1,-5.32919
1682,1,-6.30374
1684,1,-6.48225
1686,1,-7.05427
1688,1,-6.41203
1690,1,-6.48994
1692,1,-5.9386
1694,1,-5.08749
1696,1,-5.2528
1698,1,-5.42491
1700,1,-5.71862
1702,1,-6.02205
1704,1,-6.43783
1706,1,-6.23905
1708,1,-6.43366
1710,1,-5.72685
1712,1,-5.46576
1714,1,-5.36852
1716,1,-5.30554
1718,1,-5.41464
1720,1,-5.77457
1722,1,-5.92406
1724,1,-5.83243
1726,1,-5.55191
1728,1,-5.84655
1730,1,-5.97674
1732,1,-5.7366
1734,1,-5.53006
1736,1,-5.2789
1738,1,-5.36173
1740,1,-5.65374
1742,1,-6.03466
1744,1,-5.95842
1746,1,-6.24831
1748,1,-6.46541
1750,1,-6.58789
1752,1,-6.42689
1754,1,-6.78208
1756,1,-6.90354
1758,1,-6.99452
1760,1,-7.37738
1762,1,-9.40386
1764,1,-7.53936
1766,1,-6.93331
1768,1,-7.17666
1770,1,-7.30839
1772,1,-7.18389
1774,1,-7.05402
1776,1,-7.01865
1778,1,-7.06906
1780,1,-6.69423
1782,1,-6.55922
1784,1,-6.3288
1786,1,-6.48888
1788,1,-6.24106
1790,1,-6.05934
1792,1,-5.93699
1794,1,-6.29064
1796,1,-6.78781
1798,1,-6.57415
1800,1,-7.10725
1802,1,-7.40268
1804,1,-7.00431
1806,1,-6.93435
1808,1,-6.85765
1810,1,-6.49396
1812,1,-6.58104
1814,1,-6.62097
1816,1,-6.89968
1818,1,-7.22794
1820,1,-7.25562
1822,1,-6.99225
1824,1,-7.1202
1826,1,-7.03377
1828,1,-7.02901
1830,1,-7.18696
1832,1,-6.42984
1834,1,-6.43405
1836,1,-6.3489
1838,1,-5.98167
1840,1,-6.15704
1842,1,-6.48565
1844,1,-6.61498
1846,1,-6.6227
1848,1,-6.59708
1850,1,-6.63565
1852,1,-6.41423
1854,1,-6.19851
1856,1,-6.09919
1858,1,-6.32202
1860,1,-6.7062
1862,1,-7.31255
1864,1,-8.16659
1866,1,-7.65336
1868,1,-7.7128
1870,1,-7.56117
1872,1,-7.53732
1874,1,-7.14573
1876,1,-6.77656
1878,1,-6.73292
1880,1,-6.9793
1882,1,-6.89696
1884,1,-6.69104
1886,1,-6.23646
1888,1,-6.4267
1890,1,-6.36416
1892,1,-5.90505
1894,1,-5.6288
1896,1,-5.88514
1898,1,-6.24956
1900,1,-6.3879
1902,1,-6.86391
1904,1,-6.50548
1906,1,-6.4997
1908,1,-6.80808
1910,1,-6.66903
1912,1,-6.67372
1914,1,-6.30024
1916,1,-6.3722
1918,1,-6.31475
1920,1,-6.44393
1922,1,-6.97583
1924,1,-7.04953
1926,1,-6.66336
1928,1,-6.2129
1930,1,-6.21516
1932,1,-5.77693
1934,1,-5.87472
1936,1,-5.8328
1938,1,-5.81503
1940,1,-5.83431
1942,1,-6.23602
1944,1,-6.54936
1946,1,-6.25625
1948,1,-6.58053
1950,1,-6.22391
1952,1,-5.63495
1954,1,-5.47733
1956,1,-5.71171
1958,1,-5.7655
1960,1,-5.84666
1962,1,-5.92041
1964,1,-6.13919
1966,1,-6.0359
1968,1,-5.85667
1970,1,-5.88877
1972,1,-5.72821
1974,1,-5.65
1976,1,-6.47341
1978,1,-6.61404
1980,1,-6.40891
1982,1,-6.3449
1984,1,-6.22778
1986,1,-6.31463
1988,1,-6.74172
1990,1,-6.70036
1992,1,-6.34118
1994,1,-6.4
1996,1,-6.49137
1998,1,-6.232
2000,1,-6.37742
2002,1,-6.55225
2004,1,-6.61948
2006,1,-6.75043
2008,1,-7.11085
2010,1,-6.75409
2012,1,-6.77883
2014,1,-7.00937
2016,1,-7.16414
2018,1,-6.50087
2020,1,-6.44674
2022,1,-6.36183
2024,1,-6.6392
2026,1,-6.60154
2028,1,-6.45415
2030,1,-6.08097
2032,1,-5.70062
2034,1,-6.06866
2036,1,-5.78938
2038,1,-5.94767
2040,1,-5.96067
2042,1,-5.81424
2044,1,-5.954
2046,1,-5.9965
2048,1,-5.96885
2050,1,-6.05556
2052,1,-6.12115
2054,1,-6.2036
2056,1,-6.05114
2058,1,-6.02611
2060,1,-6.80885
2062,1,-7.13577
2064,1,-7.32332
2066,1,-7.29105
2068,1,-7.01581
2070,1,-6.35959
2072,1,-5.69642
2074,1,-5.88388
2076,1,-6.01556
2078,1,-6.40591
2080,1,-6.69872
2082,1,-6.73742
2084,1,-6.85163
2086,1,-6.87574
2088,1,-6.64099
2090,1,-6.415
2092,1,-6.24775
2094,1,-6.07927
2096,1,-6.04748
2098,1,-6.09299
2100,1,-6.20193
2102,1,-6.1402
2104,1,-6.26467
2106,1,-6.46334
2108,1,-6.38746
2110,1,-6.07699
2112,1,-5.83618
2114,1,-6.02375
2116,1,-5.90873
2118,1,-6.03743
2120,1,-6.5198
2122,1,-6.73705
2124,1,-6.8197
2126,1,-6.91391
2128,1,-6.86052
2130,1,-6.3983
2132,1,-6.20916
2134,1,-5.78694
2136,1,-5.79643
2138,1,-5.96203
2140,1,-6.41838
2142,1,-6.24056
2144,1,-6.23138
2146,1,-6.07336
2148,1,-6.3168
2150,1,-6.16188
2152,1,-5.77766
2154,1,-5.62629
2156,1,-5.4577
2158,1,-5.29802
2160,1,-5.47256
2162,1,-5.58835
2164,1,-5.585
2166,1,-5.75527
2168,1,-5.79973
2170,1,-5.93875
2172,1,-5.63863
2174,1,-5.96775
2176,1,-6.08366
2178,1,-6.07759
2180,1,-5.95077
2182,1,-6.19224
2184,1,-6.14166
2186,1,-6.36928
2188,1,-6.37358
2190,1,-6.45642
2192,1,-6.28516
2194,1,-6.4971
2196,1,-6.53091
2198,1,-6.70125
2200,0,-7.06858
2202,0,-6.90704
2204,0,-6.66236
2206,0,-6.65203
2208,0,-6.36927
2210,0,-5.92022
2212,0,-5.81873
2214,0,-5.7501
2216,0,-5.5405
2218,0,-5.80312
2220,0,-6.00464
2222,0,-6.02082
2224,0,-5.80591
2226,0,-6.02218
2228,0,-6.11156
2230,0,-5.94787
2232,0,-5.90435
2234,0,-5.92868
2236,0,-6.22516
2238,0,-6.34107
2240,0,-6.6852
2242,0,-6.90782
2244,0,-6.83322
2246,0,-7.2039
2248,0,-7.19972
2250,0,-6.5016
2252,0,-6.41871
2254,0,-6.24129
2256,0,-6.01664
2258,0,-6.25492
2260,0,-6.45742
2262,0,-6.34584
2264,0,-6.03276
2266,0,-6.28034
2268,0,-6.02503
2270,0,-5.73482
2272,0,-5.50898
2274,0,-5.58598
2276,0,-5.58678
2278,0,-5.79992
2280,0,-5.72111
2282,0,-6.09433
2284,0,-6.18705
2286,0,-6.20465
2288,0,-6.05367
2290,0,-5.71356
2292,0,-5.39007
2294,0,-5.61085
2296,0,-5.30737
2298,0,-5.30049
2300,0,-5.52977
2302,0,-5.28856
2304,0,-4.87971
2306,0,-5.28916
2308,0,-5.32025
2310,0,-4.97498
2312,0,-4.64396
2314,0,-4.49603
2316,0,-4.20027
2318,0,-4.21972
2320,0,-4.16248
2322,0,-4.35392
2324,0,-4.18221
2326,0,-4.29156
2328,0,-4.66145
2330,0,-4.66301
2332,0,-4.42695
2334,0,-4.51883
2336,0,-4.45247
2338,0,-4.43671
2340,0,-4.47879
2342,0,-4.4051
2344,0,-5.15514
2346,0,-5.10315
2348,0,-4.70623
2350,0,-4.33149
2352,0,-4.32851
2354,0,-4.3783
2356,0,-4.44271
2358,0,-4.16932
2360,0,-4.31894
2362,0,-4.57024
2364,0,-4.675
2366,0,-4.71524
2368,0,-4.80817
2370,0,-4.49334
2372,0,-4.13501
2374,0,-4.4201
2376,0,-4.60831
2378,0,-4.75333
2380,0,-4.68
2382,0,-4.92587
2384,0,-4.97501
2386,0,-4.95135
2388,0,-4.88674
2390,0,-5.19944
2392,0,-4.94166
2394,0,-4.9524
2396,0,-4.75048
2398,0,-4.95674
2400,0,-5.071
2402,0,-5.323
2404,0,-5.12633
2406,0,-4.86493
2408,0,-4.68051
2410,0,-4.46838
2412,0,-4.35147
2414,0,-4.38011
2416,0,-4.18544
2418,0,-4.46697
2420,0,-4.4202
2422,0,-4.31231
2424,0,-3.88433
2426,0,-4.11603
2428,0,-4.14151
2430,0,-3.9002
2432,0,-3.64766
2434,0,-3.60866
2436,0,-4.24137
2438,0,-4.23511
2440,0,-4.57731
2442,0,-4.89829
2444,0,-4.85504
2446,0,-4.91184
2448,0,-4.73494
2450,0,-4.64921
2452,0,-4.36079
2454,0,-4.12256
2456,0,-4.28719
2458,0,-4.39973
2460,0,-4.27212
2462,0,-4.4371
2464,0,-4.79466
2466,0,-4.7235
2468,0,-4.82591
2470,0,-4.52323
2472,0,-4.39005
2474,0,-3.94904
2476,0,-4.12222
2478,0,-4.40429
2480,0,-4.54649
2482,0,-4.6835
2484,0,-4.95942
2486,0,-4.90534
2488,0,-4.85365
2490,0,-4.92497
2492,0,-4.44963
2494,0,-4.59564
2496,0,-4.51572
2498,0,-4.77904
2500,0,-5.06518
2502,0,-5.13648
2504,0,-4.97611
2506,0,-4.88654
2508,0,-5.05048
2510,0,-4.76095
2512,0,-4.58783
2514,0,-4.85617
2516,0,-4.84843
2518,0,-4.78937
2520,0,-4.8182
2522,0,-4.7976
2524,0,-4.649
2526,0,-4.48578
2528,0,-4.56817
2530,0,-4.46956
2532,0,-3.7684
2534,0,-3.80853
2536,0,-3.52054
2538,0,-3.9036
2540,0,-4.20439
2542,0,-4.48389
2544,0,-4.7771
2546,0,-4.70242
2548,0,-4.61109
2550,0,-4.27317
2552,0,-4.00434
2554,0,-4.22018
2556,0,-4.58458
2558,0,-4.50671
2560,0,-4.71059
2562,0,-4.7536
2564,0,-4.91894
2566,0,-5.08249
2568,0,-4.95782
2570,0,-4.6283
2572,0,-4.21317
2574,0,-3.81198
2576,0,-3.89793
2578,0,-4.04398
2580,0,-4.49123
2582,0,-4.81841
2584,0,-4.61176
2586,0,-4.51618
2588,0,-4.30672
2590,0,-4.18332
2592,0,-4.02799
2594,0,-3.66762
2596,0,-3.65748
2598,0,-4.4371
2600,0,-4.83628
2602,0,-4.58454
2604,0,-4.66401
2606,0,-4.85298
2608,0,-4.81436
2610,0,-4.5459
2612,0,-4.60071
2614,0,-4.18003
2616,0,-4.08802
2618,0,-4.33797
2620,0,-4.40131
2622,0,-4.91919
2624,0,-5.18188
2626,0,-5.06268
2628,0,-5.15605
2630,0,-4.64496
2632,0,-4.43372
2634,0,-4.51869
2636,0,-4.3125
2638,0,-4.52362
2640,0,-4.65485
2642,0,-5.03173
2644,0,-4.86919
2646,0,-4.79175
2648,0,-5.02372
2650,0,-5.25493
2652,0,-4.99993
2654,0,-4.66971
2656,0,-4.50129
2658,0,-4.51937
2660,0,-4.52722
2662,0,-4.66873
2664,0,-4.63588
2666,0,-4.71968
2668,0,-4.88736
2670,0,-4.42744
2672,0,-4.26017
2674,0,-4.44922
2676,0,-4.17253
2678,0,-4.46438
2680,0,-4.88965
2682,0,-4.68019
2684,0,-4.78224
2686,0,-4.97827
2688,0,-5.30338
2690,0,-5.02175
2692,0,-4.90884
2694,0,-5.40857
2696,0,-5.00069
2698,0,-4.98268
2700,0,-5.25243
2702,0,-6.1017
2704,0,-6.61065
2706,0,-6.53568
2708,0,-6.42
2710,0,-6.19337
2712,0,-5.89994
2714,0,-5.94421
2716,0,-5.92604
2718,0,-5.73766
2720,0,-5.79973
2722,0,-5.85202
2724,0,-5.76808
2726,0,-5.8003
2728,0,-5.93723
2730,0,-5.70822
2732,0,-5.87882
2734,0,-6.05103
2736,0,-5.73024
2738,0,-5.69975
2740,0,-5.827
2742,0,-5.92133
2744,0,-5.50193
2746,0,-5.74087
2748,0,-5.65215
2750,0,-5.50042
2752,0,-5.53121
2754,0,-6.02351
2756,0,-5.47328
2758,0,-5.42261
2760,0,-6.15174
2762,0,-6.43318
2764,0,-5.9613
2766,0,-6.02961
2768,0,-5.23316
2770,0,-5.16007
2772,0,-4.71685
2774,0,-4.40681
2776,0,-4.50931
2778,0,-4.8846
2780,0,-4.96473
2782,0,-5.0078
2784,0,-4.84422
2786,0,-4.95302
2788,0,-4.70092
2790,0,-4.31371
2792,0,-3.83824
2794,0,-4.07439
2796,0,-4.42834
2798,0,-4.63489
2800,0,-4.89178
2802,0,-4.99371
2804,0,-4.9494
2806,0,-5.06934
2808,0,-5.12187
2810,0,-4.85854
2812,0,-4.48219
2814,0,-4.43098
2816,0,-4.65971
2818,0,-4.5949
2820,0,-4.88095
2822,0,-5.60348
2824,0,-5.51457
2826,0,-5.31706
2828,0,-5.0808
2830,0,-4.89496
2832,0,-4.54226
2834,0,-4.4351
2836,0,-4.39427
2838,0,-4.60561
2840,0,-4.88596
2842,0,-5.47923
2844,0,-5.17651
2846,0,-4.8186
2848,0,-4.70759
2850,0,-4.45615
2852,0,-4.0205
2854,0,-4.49806
2856,0,-4.68674
2858,0,-4.74698
2860,0,-4.9826
2862,0,-5.30674
2864,0,-5.50559
2866,0,-5.36597
2868,0,-5.66781
2870,0,-5.3346
2872,0,-4.97296
2874,0,-4.74304
2876,0,-4.83727
2878,0,-5.25972
2880,0,-5.23271
2882,0,-5.23497
2884,0,-5.57738
2886,0,-6.16714
2888,0,-5.70116
2890,0,-5.85274
2892,0,-5.20434
2894,0,-4.94536
2896,0,-4.35991
2898,0,-4.80762
2900,0,-5.03471
2902,0,-5.02174
2904,0,-5.13879
2906,0,-5.34339
2908,0,-5.22022
2910,0,-5.23485
2912,0,-5.16378
2914,0,-5.13236
2916,0,-4.80154
2918,0,-4.98543
2920,0,-5.23273
2922,0,-5.54012
2924,0,-5.6329
2926,0,-5.72646
2928,0,-5.50966
2930,0,-5.21908
2932,0,-4.96967
2934,0,-4.91294
2936,0,-4.66456
2938,0,-4.65177
2940,0,-5.28922
2942,0,-5.7557
2944,0,-7.06245
2946,0,-7.31479
2948,0,-6.10623
2950,0,-6.04971
2952,0,-5.80744
2954,0,-5.70504
2956,0,-5.52276
2958,0,-5.46094
2960,0,-5.28456
2962,0,-5.54541
2964,0,-5.6837
2966,0,-5.66663
2968,0,-5.67837
2970,0,-5.62539
2972,0,-5.38921
2974,0,-5.19998
2976,0,-4.95112
2978,0,-4.91453
2980,0,-5.1211
2982,0,-5.28886
2984,0,-5.12779
2986,0,-5.5834
2988,0,-5.59457
2990,0,-5.16698
2992,0,-4.88377
2994,0,-4.92653
2996,0,-5.02506
2998,0,-4.89095
3000,0,-5.70724
3002,0,-5.74295
3004,0,-6.02113
3006,0,-6.56269
3008,0,-6.60815
3010,0,-5.89018
3012,0,-5.80401
3014,0,-6.15281
3016,0,-5.82491
3018,0,-5.84474
3020,0,-5.70029
3022,0,-6.04062
3024,0,-6.13208
3026,0,-6.39123
3028,0,-6.55138
3030,0,-6.04158
3032,0,-6.04729
3034,0,-5.65609
3036,0,-5.27089
3038,0,-5.19521
3040,0,-5.2155
3042,0,-5.52298
3044,0,-5.32675
3046,0,-5.29595
3048,0,-5.34746
3050,0,-5.34308
3052,0,-5.35871
3054,0,-5.14792
3056,0,-5.42515
3058,0,-5.9088
3060,0,-5.8954
3062,0,-6.02111
3064,0,-5.73444
3066,0,-5.97461
3068,0,-6.00358
3070,0,-5.54258
3072,0,-5.29864
3074,0,-5.47018
3076,0,-4.95987
3078,0,-5.32935
3080,0,-5.31707
3082,0,-4.9401
3084,0,-5.08777
3086,0,-5.10697
3088,0,-4.66525
3090,0,-4.25968
3092,0,-3.97578
3094,0,-4.14652
3096,0,-4.44566
3098,0,-4.40974
3100,0,-4.70736
3102,0,-5.21339
3104,0,-5.35671
3106,0,-5.46822
3108,0,-5.3164
3110,0,-4.95788
3112,0,-4.50664
3114,0,-4.63408
3116,0,-4.89037
3118,0,-5.32425
3120,0,-6.43853
3122,0,-6.17915
3124,0,-6.08198
3126,0,-5.87013
3128,0,-5.63897
3130,0,-5.2476
3132,0,-5.01874
3134,0,-5.36048
3136,0,-4.96324
3138,0,-5.03117
3140,0,-5.23664
3142,0,-5.11766
3144,0,-5.38853
3146,0,-5.29391
3148,0,-5.1689
3150,0,-4.90034
3152,0,-4.71186
3154,0,-4.66698
3156,0,-4.52302
3158,0,-4.54265
3160,0,-5.01201
3162,0,-5.56826
3164,0,-5.50859
3166,0,-5.65969
3168,0,-5.37324
3170,0,-5.04277
3172,0,-4.82136
3174,0,-5.05411
3176,0,-4.73324
3178,0,-4.81938
3180,0,-5.54158
3182,0,-5.57609
3184,0,-5.42331
3186,0,-5.34426
3188,0,-5.04187
3190,0,-5.19389
3192,0,-4.57727
3194,0,-4.61445
3196,0,-4.74551
3198,0,-4.9852
3200,0,-5.09159
3202,0,-5.19391
3204,0,-5.17461
3206,0,-5.24224
3208,0,-5.24309
3210,0,-4.82761
3212,0,-4.83041
3214,0,-4.8244
3216,0,-4.55298
3218,0,-4.73263
3220,0,-4.63043
3222,0,-4.70062
3224,0,-4.6673
3226,0,-4.77979
3228,0,-4.62311
3230,0,-4.48937
3232,0,-4.46231
3234,0,-4.51361
3236,0,-4.90707
3238,0,-5.37643
3240,0,-5.78036
3242,0,-5.90555
3244,0,-5.72831
3246,0,-5.5437
3248,0,-5.37473
3250,0,-5.05101
3252,0,-4.84865
3254,0,-5.14458
3256,0,-5.20113
3258,0,-5.06233
3260,0,-5.40257
3262,0,-5.39853
3264,0,-5.23966
3266,0,-5.29978
3268,0,-4.91224
3270,0,-4.71557
3272,0,-4.68953
3274,0,-4.69408
3276,0,-4.84185
3278,0,-5.32011
3280,0,-5.52728
3282,0,-6.08584
3284,0,-6.30912
3286,0,-6.73214
3288,0,-6.57153
3290,0,-6.28985
3292,0,-6.02496
3294,0,-6.18462
3296,0,-6.07888
3298,0,-6.30458
3300,0,-6.34967
3302,0,-6.63316
3304,0,-7.19752
3306,0,-7.13754
3308,0,-6.8636
3310,0,-6.90497
3312,0,-6.95137
3314,0,-7.06736
3316,0,-6.65662
3318,0,-6.47946
3320,0,-6.55649
3322,0,-7.11301
3324,0,-6.57495
3326,0,-6.77592
3328,0,-6.79649
3330,0,-7.45414
3332,0,-7.24229
3334,0,-6.81869
3336,0,-6.49451
3338,0,-6.54483
3340,0,-6.92262
3342,0,-7.16359
3344,0,-6.87863
3346,0,-7.0424
3348,0,-6.68087
3350,0,-6.4157
3352,0,-6.19288
3354,0,-6.51158
3356,0,-6.35514
3358,0,-5.9737
3360,0,-5.73531
3362,0,-5.87162
3364,0,-5.78497
3366,0,-5.69358
3368,0,-5.65866
3370,0,-5.70947
3372,0,-5.21447
3374,0,-5.55081
3376,0,-5.25958
3378,0,-5.43864
3380,0,-5.72809
3382,0,-5.65666
3384,0,-5.62263
3386,0,-5.94011
3388,0,-5.69158
3390,0,-5.43078
3392,0,-5.55724
3394,0,-5.69521
3396,0,-5.7603
3398,0,-6.01297
3400,0,-5.82813
3402,0,-5.63975
3404,0,-5.32875
3406,0,-5.20664
3408,0,-4.88914
3410,0,-4.63533
3412,0,-4.89735
3414,0,-4.41135
3416,0,-4.35908
3418,0,-4.54401
3420,0,-4.76858
3422,0,-4.93153
3424,0,-5.21547
3426,0,-5.49611
3428,0,-5.34671
3430,0,-4.65377
3432,0,-4.59254
3434,0,-4.74897
3436,0,-5.1589
3438,0,-5.29899
3440,0,-6.08077
3442,0,-6.24788
3444,0,-6.22564
3446,0,-5.9687
3448,0,-5.73634
3450,0,-5.52336
3452,0,-5.19111
3454,0,-5.057
3456,0,-4.60715
3458,0,-5.04115
3460,0,-5.23984
3462,0,-5.07374
3464,0,-4.94007
3466,0,-4.70019
3468,0,-4.88742
3470,0,-4.68141
3472,0,-4.40364
3474,0,-4.47977
3476,0,-4.8019
3478,0,-4.77221
3480,0,-5.13298
3482,0,-5.38249
3484,0,-5.63443
3486,0,-6.59558
3488,0,-5.93601
3490,0,-5.54714
3492,0,-5.36512
3494,0,-5.51649
3496,0,-5.31037
3498,0,-5.45824
