Time (ms),Light,Current (pA)
0,0,-5.55889
2,0,-5.66269
4,0,-5.46366
6,0,-5.10741
8,0,-4.87016
10,0,-5.12204
12,0,-5.39905
14,0,-5.37109
16,0,-5.41386
18,0,-5.21298
20,0,-5.00175
22,0,-5.11257
24,0,-5.31487
26,0,-5.17167
28,0,-4.87587
30,0,-5.31215
32,0,-4.87979
34,0,-4.66642
36,0,-4.96018
38,0,-4.92412
40,0,-4.71572
42,0,-4.754
44,0,-4.75786
46,0,-4.92048
48,0,-4.76103
50,0,-4.90667
52,0,-4.67117
54,0,-4.65933
56,0,-5.05003
58,0,-4.79735
60,0,-4.75604
62,0,-5.02435
64,0,-4.80429
66,0,-4.85165
68,0,-4.76281
70,0,-4.80621
72,0,-4.9666
74,0,-4.99662
76,0,-5.15111
78,0,-5.01804
80,0,-5.04374
82,0,-5.23293
84,0,-4.89507
86,0,-4.19088
88,0,-4.35457
90,0,-4.57264
92,0,-4.84042
94,0,-5.35266
96,0,-5.60843
98,0,-5.42917
100,0,-5.65268
102,0,-5.79012
104,0,-5.80922
106,0,-6.97939
108,0,-5.32902
110,0,-4.79828
112,0,-4.61322
114,0,-4.74112
116,0,-5.02443
118,0,-4.93354
120,0,-5.29558
122,0,-5.09782
124,0,-5.19404
126,0,-5.23113
128,0,-5.02081
130,0,-4.82835
132,0,-4.85836
134,0,-4.44327
136,0,-4.73509
138,0,-4.5958
140,0,-5.49952
142,0,-5.51042
144,0,-5.52148
146,0,-5.36753
148,0,-5.34551
150,0,-5.21039
152,0,-5.16458
154,0,-4.88305
156,0,-4.4523
158,0,-4.13902
160,0,-4.03775
162,0,-4.30384
164,0,-4.26741
166,0,-4.32933
168,0,-4.73912
170,0,-4.73397
172,0,-4.52866
174,0,-4.56518
176,0,-4.56938
178,0,-4.13925
180,0,-4.2504
182,0,-4.36723
184,0,-4.32706
186,0,-4.27501
188,0,-4.50924
190,0,-4.60448
192,0,-4.38298
194,0,-4.21214
196,0,-4.32822
198,0,-4.97176
200,1,-4.50115
202,1,-4.31856
204,1,-4.27322
206,1,-4.20759
208,1,-4.11163
210,1,-4.16014
212,1,-4.33482
214,1,-4.40237
216,1,-4.44776
218,1,-4.58697
220,1,-4.61155
222,1,-4.76338
224,1,-4.80188
226,1,-4.29288
228,1,-4.43365
230,1,-4.63604
232,1,-4.97931
234,1,-5.44039
236,1,-5.85969
238,1,-6.6124
240,1,-8.46216
242,1,-8.63218
244,1,-11.45437
246,1,-11.69613
248,1,-11.23846
250,1,-13.70726
252,1,-13.81787
254,1,-14.25366
256,1,-15.71117
258,1,-17.03115
260,1,-18.6643
262,1,-24.34501
264,1,-24.98648
266,1,-20.34141
268,1,-17.10319
270,1,-21.2949
272,1,-15.33272
274,1,-16.08579
276,1,-30.96875
278,1,-30.4853
280,1,-16.7745
282,1,-19.08671
284,1,-19.03336
286,1,-15.5514
288,1,-18.02684
290,1,-20.77615
292,1,-16.97576
294,1,-13.95569
296,1,-14.08531
298,1,-13.43969
300,1,-18.09722
302,1,-17.75371
304,1,-13.99629
306,1,-13.83736
308,1,-15.94181
310,1,-15.34131
312,1,-15.43167
314,1,-10.51133
316,1,-9.11683
318,1,-9.84693
320,1,-10.93733
322,1,-12.68983
324,1,-12.48029
326,1,-15.28839
328,1,-10.22309
330,1,-8.34056
332,1,-8.19669
334,1,-9.60633
336,1,-9.23409
338,1,-11.16262
340,1,-9.05541
342,1,-7.59874
344,1,-7.23487
346,1,-7.09968
348,1,-6.89129
350,1,-6.75482
352,1,-6.73471
354,1,-7.11903
356,1,-7.32212
358,1,-7.12205
360,1,-7.07227
362,1,-7.19774
364,1,-6.71512
366,1,-6.33734
368,1,-6.21587
370,1,-6.11938
372,1,-5.93669
374,1,-5.82732
376,1,-5.6113
378,1,-5.68597
380,1,-5.95014
382,1,-5.58111
384,1,-5.6628
386,1,-5.22569
388,1,-4.83695
390,1,-4.71763
392,1,-4.43957
394,1,-4.57309
396,1,-4.56368
398,1,-4.78069
400,1,-5.34734
402,1,-5.25233
404,1,-5.11227
406,1,-5.0401
408,1,-4.88992
410,1,-4.96147
412,1,-4.61427
414,1,-4.3671
416,1,-5.09561
418,1,-4.51217
420,1,-4.81303
422,1,-5.26813
424,1,-5.04896
426,1,-4.84697
428,1,-4.61694
430,1,-4.61369
432,1,-4.0263
434,1,-3.72666
436,1,-3.94502
438,1,-4.02129
440,1,-4.10705
442,1,-4.09001
444,1,-4.15869
446,1,-4.22191
448,1,-4.24517
450,1,-3.92956
452,1,-3.67064
454,1,-3.55611
456,1,-3.86734
458,1,-3.81851
460,1,-4.04474
462,1,-4.1026
464,1,-3.93262
466,1,-4.13991
468,1,-4.16353
470,1,-4.17337
472,1,-4.07056
474,1,-4.28536
476,1,-4.00159
478,1,-3.75169
480,1,-3.88935
482,1,-3.85703
484,1,-4.02326
486,1,-3.96168
488,1,-4.12
490,1,-4.06255
492,1,-3.69064
494,1,-3.91226
496,1,-3.50969
498,1,-3.46697
500,1,-3.47296
502,1,-3.51905
504,1,-3.24214
506,1,-2.98051
508,1,-3.23517
510,1,-3.60745
512,1,-3.74738
514,1,-3.97183
516,1,-4.06548
518,1,-4.20138
520,1,-4.00399
522,1,-4.05478
524,1,-3.77132
526,1,-3.5485
528,1,-3.82865
530,1,-4.1557
532,1,-4.05034
534,1,-4.31527
536,1,-4.19428
538,1,-4.44251
540,1,-4.60787
542,1,-4.42678
544,1,-4.31285
546,1,-4.28008
548,1,-3.89275
550,1,-3.95025
552,1,-4.34757
554,1,-4.0491
556,1,-4.38495
558,1,-4.41409
560,1,-4.44131
562,1,-4.61501
564,1,-4.58329
566,1,-3.86698
568,1,-4.06366
570,1,-4.04506
572,1,-3.83507
574,1,-3.80685
576,1,-4.43785
578,1,-4.72951
580,1,-5.14534
582,1,-5.28572
584,1,-4.77836
586,1,-4.11119
588,1,-4.13415
590,1,-3.9636
592,1,-4.22305
594,1,-4.16797
596,1,-4.34827
598,1,-4.92404
600,1,-5.05759
602,1,-5.1854
604,1,-5.0511
606,1,-5.19104
608,1,-5.03829
610,1,-4.58494
612,1,-4.50855
614,1,-4.3957
616,1,-4.5443
618,1,-4.50615
620,1,-4.69124
622,1,-5.14009
624,1,-5.355
626,1,-5.11627
628,1,-5.17638
630,1,-5.2221
632,1,-5.26065
634,1,-5.92405
636,1,-6.54985
638,1,-5.61523
640,1,-5.73118
642,1,-5.7452
644,1,-5.77073
646,1,-6.06515
648,1,-7.53653
650,1,-6.22876
652,1,-5.8256
654,1,-6.0737
656,1,-6.35374
658,1,-7.0726
660,1,-6.77374
662,1,-7.7912
664,1,-6.44307
666,1,-6.10628
668,1,-6.15947
670,1,-6.56612
672,1,-6.08714
674,1,-5.9156
676,1,-5.67773
678,1,-5.79032
680,1,-6.00156
682,1,-6.91217
684,1,-5.80784
686,1,-5.53678
688,1,-5.94069
690,1,-5.93358
692,1,-5.7449
694,1,-6.05991
696,1,-6.17487
698,1,-6.13344
700,1,-6.36251
702,1,-6.18002
704,1,-5.81603
706,1,-5.82798
708,1,-5.5452
710,1,-5.56322
712,1,-5.63061
714,1,-5.91036
716,1,-6.38442
718,1,-6.0587
720,1,-6.27542
722,1,-6.2756
724,1,-6.00097
726,1,-5.8313
728,1,-5.77647
730,1,-5.33374
732,1,-5.14563
734,1,-5.05334
736,1,-5.52218
738,1,-5.5466
740,1,-5.57367
742,1,-5.5122
744,1,-5.36633
746,1,-5.22699
748,1,-4.88543
750,1,-4.50777
752,1,-4.55116
754,1,-4.50171
756,1,-4.56035
758,1,-4.99434
760,1,-5.43799
762,1,-5.64604
764,1,-5.56432
766,1,-5.55716
768,1,-5.33733
770,1,-4.8097
772,1,-4.80969
774,1,-4.84
776,1,-4.90691
778,1,-4.93238
780,1,-5.01678
782,1,-5.24574
784,1,-5.14835
786,1,-5.12661
788,1,-5.19943
790,1,-5.34826
792,1,-5.23551
794,1,-5.28005
796,1,-5.60286
798,1,-5.18015
800,1,-5.08427
802,1,-5.33123
804,1,-5.34611
806,1,-5.12599
808,1,-5.12059
810,1,-4.96043
812,1,-4.89632
814,1,-5.27765
816,1,-5.48891
818,1,-5.39347
820,1,-5.61102
822,1,-5.51398
824,1,-5.70867
826,1,-5.53349
828,1,-5.39056
830,1,-5.41724
832,1,-5.57963
834,1,-5.92778
836,1,-5.95828
838,1,-6.12329
840,1,-6.41166
842,1,-6.31489
844,1,-5.99553
846,1,-6.83879
848,1,-6.61091
850,1,-6.06765
852,1,-5.96099
854,1,-6.50122
856,1,-6.80931
858,1,-6.99592
860,1,-7.00221
862,1,-7.17803
864,1,-7.5842
866,1,-6.9232
868,1,-7.7246
870,1,-7.77469
872,1,-6.41363
874,1,-6.92706
876,1,-7.32931
878,1,-7.35297
880,1,-7.79879
882,1,-7.38928
884,1,-7.05605
886,1,-7.20521
888,1,-6.75937
890,1,-6.48416
892,1,-6.54221
894,1,-6.72476
896,1,-6.98663
898,1,-6.8168
900,1,-6.96328
902,1,-7.20478
904,1,-6.61168
906,1,-6.58071
908,1,-6.24336
910,1,-5.92339
912,1,-5.86651
914,1,-5.76753
916,1,-5.65539
918,1,-5.78287
920,1,-5.86546
922,1,-5.86615
924,1,-5.99924
926,1,-6.19598
928,1,-6.13733
930,1,-5.78199
932,1,-5.83605
934,1,-5.74059
936,1,-5.28104
938,1,-5.2963
940,1,-5.44289
942,1,-5.51961
944,1,-5.72451
946,1,-6.03398
948,1,-6.00002
950,1,-5.79982
952,1,-5.25606
954,1,-5.37356
956,1,-5.48326
958,1,-5.28863
960,1,-5.22682
962,1,-5.21404
964,1,-5.39117
966,1,-5.42399
968,1,-5.62698
970,1,-5.93816
972,1,-5.84318
974,1,-5.52838
976,1,-5.69741
978,1,-5.6959
980,1,-5.77688
982,1,-6.02879
984,1,-5.95569
986,1,-5.71598
988,1,-5.53847
990,1,-5.59161
992,1,-5.97764
994,1,-6.20287
996,1,-6.34885
998,1,-6.72324
1000,1,-6.52176
1002,1,-6.70867
1004,1,-6.26735
1006,1,-6.04854
1008,1,-5.70903
1010,1,-5.62893
1012,1,-5.59832
1014,1,-5.83053
1016,1,-6.05152
1018,1,-5.83388
1020,1,-6.37807
1022,1,-6.5401
1024,1,-6.78532
1026,1,-7.04223
1028,1,-6.83321
1030,1,-6.84718
1032,1,-6.56478
1034,1,-6.33726
1036,1,-6.28472
1038,1,-6.35315
1040,1,-6.33974
1042,1,-7.42635
1044,1,-6.37644
1046,1,-6.02275
1048,1,-6.3444
1050,1,-6.3371
1052,1,-6.21777
1054,1,-6.1421
1056,1,-6.60924
1058,1,-6.54195
1060,1,-5.90508
1062,1,-6.12365
1064,1,-5.90951
1066,1,-5.77243
1068,1,-6.05967
1070,1,-5.83499
1072,1,-6.07055
1074,1,-6.25028
1076,1,-6.13447
1078,1,-6.26212
1080,1,-6.68609
1082,1,-6.45232
1084,1,-6.13733
1086,1,-6.1475
1088,1,-5.62203
1090,1,-5.78286
1092,1,-6.07007
1094,1,-6.14968
1096,1,-6.2289
1098,1,-6.06417
1100,1,-6.10193
1102,1,-5.97299
1104,1,-5.80962
1106,1,-5.52126
1108,1,-5.41583
1110,1,-5.35103
1112,1,-5.06127
1114,1,-5.32302
1116,1,-5.75357
1118,1,-5.62897
1120,1,-5.58437
1122,1,-5.76467
1124,1,-5.54967
1126,1,-5.64433
1128,1,-5.68534
1130,1,-5.60141
1132,1,-5.62764
1134,1,-5.65586
1136,1,-5.80262
1138,1,-5.71535
1140,1,-5.85737
1142,1,-5.60768
1144,1,-5.45575
1146,1,-5.23736
1148,1,-5.18667
1150,1,-5.06161
1152,1,-4.93569
1154,1,-5.0172
1156,1,-5.17544
1158,1,-5.66564
1160,1,-6.21402
1162,1,-6.12274
1164,1,-6.25961
1166,1,-6.27767
1168,1,-5.96557
1170,1,-5.88615
1172,1,-5.58744
1174,1,-5.6838
1176,1,-5.89105
1178,1,-5.85964
1180,1,-6.67438
1182,1,-7.07905
1184,1,-7.64963
1186,1,-7.29553
1188,1,-6.50107
1190,1,-6.27733
1192,1,-6.24589
1194,1,-6.63438
1196,1,-7.10414
1198,1,-8.63762
1200,1,-7.06902
1202,1,-6.74332
1204,1,-7.20252
1206,1,-6.86981
1208,1,-6.51335
1210,1,-6.35303
1212,1,-6.46042
1214,1,-6.54493
1216,1,-5.73675
1218,1,-6.07116
1220,1,-5.8733
1222,1,-6.10131
1224,1,-5.91469
1226,1,-6.10098
1228,1,-6.60633
1230,1,-7.27292
1232,1,-8.52787
1234,1,-7.14974
1236,1,-6.70092
1238,1,-6.49558
1240,1,-6.30375
1242,1,-6.07268
1244,1,-6.06995
1246,1,-6.13128
1248,1,-6.48796
1250,1,-6.99668
1252,1,-7.16822
1254,1,-8.09382
1256,1,-7.49726
1258,1,-9.01584
1260,1,-7.48271
1262,1,-6.45594
1264,1,-6.08467
1266,1,-6.11682
1268,1,-5.99001
1270,1,-5.88903
1272,1,-6.25605
1274,1,-6.69953
1276,1,-6.31752
1278,1,-5.98799
1280,1,-5.85976
1282,1,-5.69526
1284,1,-5.14934
1286,1,-4.65413
1288,1,-4.51168
1290,1,-5.05486
1292,1,-4.80898
1294,1,-4.98145
1296,1,-5.52252
1298,1,-5.85073
1300,1,-5.68403
1302,1,-5.47143
1304,1,-5.55552
1306,1,-5.32703
1308,1,-5.35532
1310,1,-4.96324
1312,1,-5.13562
1314,1,-5.32126
1316,1,-5.54209
1318,1,-5.85439
1320,1,-6.1442
1322,1,-5.98463
1324,1,-5.84161
1326,1,-5.82138
1328,1,-5.71393
1330,1,-5.71444
1332,1,-5.71164
1334,1,-5.35568
1336,1,-5.24048
1338,1,-5.18956
1340,1,-5.44476
1342,1,-5.23664
1344,1,-5.09266
1346,1,-4.87408
1348,1,-4.59046
1350,1,-4.92201
1352,1,-4.70051
1354,1,-4.80585
1356,1,-4.89036
1358,1,-5.27888
1360,1,-5.66678
1362,1,-5.73823
1364,1,-6.03519
1366,1,-6.10141
1368,1,-6.1163
1370,1,-6.0357
1372,1,-6.00785
1374,1,-6.16612
1376,1,-6.00898
1378,1,-6.40073
1380,1,-6.25695
1382,1,-5.92697
1384,1,-6.0443
1386,1,-6.45937
1388,1,-6.37328
1390,1,-6.06071
1392,1,-5.58591
1394,1,-5.41268
1396,1,-5.2343
1398,1,-5.24948
1400,1,-5.245
1402,1,-5.50899
1404,1,-5.44939
1406,1,-5.68338
1408,1,-5.76024
1410,1,-5.91343
1412,1,-5.67561
1414,1,-5.68006
1416,1,-5.29487
1418,1,-5.30301
1420,1,-5.42907
1422,1,-5.24401
1424,1,-5.56518
1426,1,-5.82334
1428,1,-6.04012
1430,1,-6.19528
1432,1,-5.93712
1434,1,-5.74166
1436,1,-5.8802
1438,1,-5.77695
1440,1,-5.66122
1442,1,-5.50563
1444,1,-5.57507
1446,1,-5.34656
1448,1,-5.43823
1450,1,-5.94434
1452,1,-5.99331
1454,1,-6.05708
1456,1,-5.70244
1458,1,-5.94373
1460,1,-6.25387
1462,1,-5.7929
1464,1,-4.92665
1466,1,-5.54277
1468,1,-5.52693
1470,1,-5.97135
1472,1,-6.54942
1474,1,-7.45172
1476,1,-6.87111
1478,1,-6.0966
1480,1,-6.18862
1482,1,-6.09293
1484,1,-5.75871
1486,1,-5.78308
1488,1,-5.84555
1490,1,-6.06794
1492,1,-6.46859
1494,1,-7.14032
1496,1,-7.62619
1498,1,-6.49739
1500,1,-6.1992
1502,1,-5.80405
1504,1,-5.77659
1506,1,-5.5908
1508,1,-5.422
1510,1,-5.12387
1512,1,-5.31905
1514,1,-5.50604
1516,1,-5.61808
1518,1,-6.18384
1520,1,-6.15866
1522,1,-6.11636
1524,1,-5.71428
1526,1,-5.79985
1528,1,-5.97099
1530,1,-5.38443
1532,1,-5.39202
1534,1,-5.39611
1536,1,-5.57227
1538,1,-5.6659
1540,1,-5.84939
1542,1,-5.89839
1544,1,-5.66592
1546,1,-5.21811
1548,1,-4.51259
1550,1,-4.40633
1552,1,-4.59484
1554,1,-4.71792
1556,1,-4.97808
1558,1,-5.30107
1560,1,-6.05829
1562,1,-6.11755
1564,1,-6.16511
1566,1,-6.11618
1568,1,-5.79464
1570,1,-5.51807
1572,1,-5.57399
1574,1,-5.44827
1576,1,-5.60638
1578,1,-6.16264
1580,1,-6.11187
1582,1,-6.29874
1584,1,-6.41136
1586,1,-6.35494
1588,1,-6.33484
1590,1,-5.62286
1592,1,-5.13453
1594,1,-4.9083
1596,1,-5.4773
1598,1,-5.38165
1600,1,-5.21695
1602,1,-5.28195
1604,1,-5.40783
1606,1,-5.6484
1608,1,-5.75055
1610,1,-6.00868
1612,1,-5.65609
1614,1,-5.36819
1616,1,-5.63498
1618,1,-5.9173
1620,1,-5.80566
1622,1,-5.7629
1624,1,-5.96849
1626,1,-5.5151
1628,1,-5.42178
1630,1,-5.68273
1632,1,-5.61658
1634,1,-5.58289
1636,1,-5.26357
1638,1,-5.2175
1640,1,-5.05027
1642,1,-5.44078
1644,1,-5.18615
1646,1,-4.89391
1648,1,-4.77153
1650,1,-4.84176
1652,1,-5.03363
1654,1,-5.49307
1656,1,-5.39471
1658,1,-5.12463
1660,1,-5.21657
1662,1,-5.4962
1664,1,-5.47401
1666,1,-5.50041
1668,1,-5.222
1670,1,-5.47916
1672,1,-5.5109
1674,1,-5.94607
1676,1,-6.11962
1678,1,-6.42754
1680,1,-6.53278
1682,1,-6.68573
1684,1,-6.45772
1686,1,-5.838
1688,1,-5.79524
1690,1,-5.72466
1692,1,-5.69371
1694,1,-5.48378
1696,1,-5.61991
1698,1,-5.5803
1700,1,-5.54502
1702,1,-5.16474
1704,1,-5.21342
1706,1,-4.98829
1708,1,-4.88766
1710,1,-4.97664
1712,1,-4.93722
1714,1,-4.98666
1716,1,-5.68222
1718,1,-5.4519
1720,1,-5.79586
1722,1,-5.87201
1724,1,-5.35372
1726,1,-5.21131
1728,1,-5.26069
1730,1,-5.07893
1732,1,-5.46301
1734,1,-5.78663
1736,1,-6.53888
1738,1,-7.10761
1740,1,-6.38044
1742,1,-5.98566
1744,1,-5.57518
1746,1,-5.6071
1748,1,-5.30478
1750,1,-5.38244
1752,1,-5.25494
1754,1,-5.16406
1756,1,-5.31871
1758,1,-5.41409
1760,1,-5.70918
1762,1,-5.61139
1764,1,-5.29533
1766,1,-5.1348
1768,1,-5.35965
1770,1,-4.9644
1772,1,-5.18637
1774,1,-5.24563
1776,1,-5.42592
1778,1,-5.62214
1780,1,-5.83619
1782,1,-5.93254
1784,1,-5.50099
1786,1,-5.19547
1788,1,-5.30863
1790,1,-5.49947
1792,1,-5.35212
1794,1,-4.99322
1796,1,-5.18807
1798,1,-5.34661
1800,1,-5.46202
1802,1,-5.1873
1804,1,-5.82552
1806,1,-5.84428
1808,1,-5.53759
1810,1,-5.48096
1812,1,-5.45736
1814,1,-5.36932
1816,1,-5.45167
1818,1,-5.70604
1820,1,-5.61386
1822,1,-5.5191
1824,1,-5.2362
1826,1,-4.85553
1828,1,-5.12812
1830,1,-5.16048
1832,1,-5.16327
1834,1,-5.29861
1836,1,-5.25354
1838,1,-5.47094
1840,1,-5.86266
1842,1,-5.90835
1844,1,-5.66668
1846,1,-5.298
1848,1,-5.27995
1850,1,-5.26235
1852,1,-5.6636
1854,1,-5.89046
1856,1,-5.21414
1858,1,-5.49001
1860,1,-5.76354
1862,1,-5.58163
1864,1,-5.03808
1866,1,-5.28711
1868,1,-4.9539
1870,1,-4.69959
1872,1,-4.90891
1874,1,-5.19385
1876,1,-5.07753
1878,1,-5.39069
1880,1,-5.38731
1882,1,-5.42505
1884,1,-5.10976
1886,1,-4.9618
1888,1,-5.0432
1890,1,-5.29509
1892,1,-5.12621
1894,1,-5.10039
1896,1,-4.79685
1898,1,-4.85886
1900,1,-5.07418
1902,1,-4.81132
1904,1,-4.67799
1906,1,-4.30488
1908,1,-4.44995
1910,1,-4.78012
1912,1,-4.91228
1914,1,-5.19507
1916,1,-5.13227
1918,1,-5.52264
1920,1,-5.55966
1922,1,-5.73441
1924,1,-5.73733
1926,1,-5.34792
1928,1,-5.19398
1930,1,-5.60249
1932,1,-5.73832
1934,1,-5.75505
1936,1,-5.37692
1938,1,-5.51555
1940,1,-5.58171
1942,1,-5.73051
1944,1,-5.5286
1946,1,-5.27623
1948,1,-5.07749
1950,1,-4.52691
1952,1,-4.54012
1954,1,-5.17415
1956,1,-5.07384
1958,1,-5.04942
1960,1,-5.1786
1962,1,-5.44552
1964,1,-5.46121
1966,1,-5.57984
1968,1,-5.5307
1970,1,-5.32156
1972,1,-5.12963
1974,1,-5.37779
1976,1,-5.53374
1978,1,-5.44118
1980,1,-5.44503
1982,1,-5.32095
1984,1,-5.55966
1986,1,-5.68039
1988,1,-5.39365
1990,1,-5.67335
1992,1,-5.35874
1994,1,-5.08564
1996,1,-5.10165
1998,1,-5.25697
2000,1,-5.42577
2002,1,-5.06989
2004,1,-4.81786
2006,1,-4.77699
2008,1,-4.50209
2010,1,-4.54429
2012,1,-4.52334
2014,1,-4.73864
2016,1,-4.86438
2018,1,-4.85328
2020,1,-5.16407
2022,1,-5.17468
2024,1,-4.77919
2026,1,-5.41309
2028,1,-5.55373
2030,1,-5.38198
2032,1,-5.1256
2034,1,-5.3826
2036,1,-5.49192
2038,1,-5.48259
2040,1,-5.76705
2042,1,-5.5615
2044,1,-5.70577
2046,1,-5.5963
2048,1,-5.89047
2050,1,-6.40966
2052,1,-5.66878
2054,1,-5.91093
2056,1,-6.11496
2058,1,-5.89941
2060,1,-5.78245
2062,1,-5.94876
2064,1,-5.68599
2066,1,-5.90169
2068,1,-5.36201
2070,1,-4.91222
2072,1,-5.32644
2074,1,-5.50035
2076,1,-5.48561
2078,1,-5.20767
2080,1,-5.2207
2082,1,-5.10688
2084,1,-4.97698
2086,1,-4.88502
2088,1,-5.06306
2090,1,-5.18414
2092,1,-5.32117
2094,1,-5.49068
2096,1,-5.89162
2098,1,-6.10297
2100,1,-6.40435
2102,1,-6.12488
2104,1,-5.30215
2106,1,-5.43444
2108,1,-4.9937
2110,1,-4.79349
2112,1,-4.86842
2114,1,-4.74143
2116,1,-4.84042
2118,1,-5.33425
2120,1,-5.75413
2122,1,-5.73794
2124,1,-5.6574
2126,1,-5.80865
2128,1,-5.65947
2130,1,-5.30291
2132,1,-5.39172
2134,1,-5.27221
2136,1,-5.34959
2138,1,-5.22088
2140,1,-5.67465
2142,1,-5.60725
2144,1,-5.72343
2146,1,-5.53775
2148,1,-5.76413
2150,1,-5.73107
2152,1,-5.29754
2154,1,-5.31293
2156,1,-5.22242
2158,1,-5.1514
2160,1,-5.22962
2162,1,-5.64687
2164,1,-5.52841
2166,1,-5.87456
2168,1,-5.58153
2170,1,-5.34071
2172,1,-5.10838
2174,1,-5.16575
2176,1,-5.57624
2178,1,-5.54889
2180,1,-5.84831
2182,1,-5.93298
2184,1,-5.69471
2186,1,-5.58007
2188,1,-5.30116
2190,1,-5.67642
2192,1,-5.36834
2194,1,-5.1614
2196,1,-5.18058
2198,1,-5.4073
2200,0,-5.52071
2202,0,-5.03394
2204,0,-5.31682
2206,0,-5.0908
2208,0,-5.06411
2210,0,-4.69009
2212,0,-4.75764
2214,0,-5.07822
2216,0,-5.54324
2218,0,-5.84812
2220,0,-6.32426
2222,0,-6.07668
2224,0,-5.99035
2226,0,-5.69174
2228,0,-5.45477
2230,0,-5.23943
2232,0,-5.27396
2234,0,-5.70715
2236,0,-5.7176
2238,0,-5.73083
2240,0,-5.67805
2242,0,-5.39788
2244,0,-5.50135
2246,0,-5.51604
2248,0,-5.1806
2250,0,-5.1149
2252,0,-5.2346
2254,0,-5.32068
2256,0,-5.26263
2258,0,-5.44122
2260,0,-5.31171
2262,0,-5.00564
2264,0,-4.68117
2266,0,-4.62803
2268,0,-4.65676
2270,0,-4.71275
2272,0,-4.4772
2274,0,-4.60173
2276,0,-4.71296
2278,0,-4.82773
2280,0,-4.94633
2282,0,-5.07742
2284,0,-4.66892
2286,0,-4.52364
2288,0,-4.755
2290,0,-4.65662
2292,0,-4.62483
2294,0,-4.68423
2296,0,-4.51105
2298,0,-4.4163
2300,0,-4.77777
2302,0,-5.04069
2304,0,-4.95889
2306,0,-4.42244
2308,0,-4.22282
2310,0,-4.48845
2312,0,-4.07989
2314,0,-4.40934
2316,0,-4.44865
2318,0,-4.16937
2320,0,-4.34691
2322,0,-4.59637
2324,0,-4.36013
2326,0,-4.23835
2328,0,-4.15292
2330,0,-4.15632
2332,0,-4.00081
2334,0,-4.16847
2336,0,-4.14123
2338,0,-4.34041
2340,0,-4.49753
2342,0,-4.22958
2344,0,-4.19123
2346,0,-4.22367
2348,0,-3.88414
2350,0,-3.97491
2352,0,-4.25896
2354,0,-4.49137
2356,0,-5.01199
2358,0,-4.94725
2360,0,-4.63531
2362,0,-5.0455
2364,0,-4.94255
2366,0,-4.74598
2368,0,-4.78927
2370,0,-4.55505
2372,0,-3.70303
2374,0,-4.03098
2376,0,-4.47837
2378,0,-4.36748
2380,0,-4.35777
2382,0,-4.51949
2384,0,-4.16508
2386,0,-3.91952
2388,0,-3.61363
2390,0,-3.46257
2392,0,-3.92093
2394,0,-3.79857
2396,0,-3.59803
2398,0,-3.98122
2400,0,-4.56401
2402,0,-4.33287
2404,0,-4.1285
2406,0,-4.67452
2408,0,-4.41692
2410,0,-4.31724
2412,0,-4.36289
2414,0,-3.15281
2416,0,-3.6902
2418,0,-4.69402
2420,0,-4.5983
2422,0,-4.95241
2424,0,-5.81996
2426,0,-5.46706
2428,0,-4.66542
2430,0,-4.52803
2432,0,-4.20694
2434,0,-4.13878
2436,0,-3.97229
2438,0,-4.01335
2440,0,-4.29228
2442,0,-4.22488
2444,0,-4.2504
2446,0,-4.29403
2448,0,-4.25432
2450,0,-4.04213
2452,0,-4.1626
2454,0,-4.25303
2456,0,-4.16353
2458,0,-4.29306
2460,0,-4.75236
2462,0,-4.73101
2464,0,-4.59323
2466,0,-4.57189
2468,0,-4.6681
2470,0,-4.56214
2472,0,-4.32213
2474,0,-4.64714
2476,0,-4.86591
2478,0,-4.68785
2480,0,-4.92163
2482,0,-4.66435
2484,0,-4.58032
2486,0,-4.1268
2488,0,-4.23942
2490,0,-4.02999
2492,0,-4.34769
2494,0,-4.41003
2496,0,-4.30227
2498,0,-4.35783
2500,0,-4.42745
2502,0,-4.56556
2504,0,-4.03156
2506,0,-3.88467
2508,0,-4.0053
2510,0,-4.25307
2512,0,-4.29001
2514,0,-4.23193
2516,0,-4.56269
2518,0,-4.6289
2520,0,-4.59719
2522,0,-4.76276
2524,0,-4.72202
2526,0,-4.58041
2528,0,-4.10858
2530,0,-4.13772
2532,0,-4.19846
2534,0,-4.23204
2536,0,-4.83131
2538,0,-4.75092
2540,0,-4.38494
2542,0,-4.5218
2544,0,-4.43533
2546,0,-4.34414
2548,0,-4.33756
2550,0,-4.06235
2552,0,-4.22099
2554,0,-4.51042
2556,0,-4.56609
2558,0,-4.43252
2560,0,-4.42301
2562,0,-4.46154
2564,0,-4.29168
2566,0,-4.41834
2568,0,-4.13431
2570,0,-4.23038
2572,0,-4.19468
2574,0,-4.37893
2576,0,-4.11335
2578,0,-3.92484
2580,0,-4.39759
2582,0,-4.4702
2584,0,-4.26315
2586,0,-4.39119
2588,0,-4.39821
2590,0,-4.33447
2592,0,-4.45164
2594,0,-4.53009
2596,0,-4.376
2598,0,-4.49468
2600,0,-4.80803
2602,0,-4.66182
2604,0,-4.48232
2606,0,-4.17856
2608,0,-3.94028
2610,0,-3.99186
2612,0,-4.06667
2614,0,-4.26681
2616,0,-4.56051
2618,0,-4.89868
2620,0,-4.79333
2622,0,-4.88006
2624,0,-4.78203
2626,0,-4.60164
2628,0,-4.57162
2630,0,-4.32211
2632,0,-4.42564
2634,0,-4.45726
2636,0,-4.36032
2638,0,-4.77982
2640,0,-4.97636
2642,0,-4.88149
2644,0,-4.75073
2646,0,-4.84436
2648,0,-4.62187
2650,0,-4.45828
2652,0,-4.90899
2654,0,-5.02161
2656,0,-5.17213
2658,0,-5.76771
2660,0,-5.80542
2662,0,-5.57398
2664,0,-5.62301
2666,0,-5.54297
2668,0,-5.37499
2670,0,-5.33143
2672,0,-5.11085
2674,0,-5.41763
2676,0,-5.34306
2678,0,-5.3257
2680,0,-5.78164
2682,0,-5.86883
2684,0,-5.36677
2686,0,-5.23848
2688,0,-5.24671
2690,0,-5.19675
2692,0,-5.08583
2694,0,-5.04625
2696,0,-4.91091
2698,0,-5.04384
2700,0,-5.25904
2702,0,-5.3867
2704,0,-5.20127
2706,0,-5.35408
2708,0,-4.88499
2710,0,-4.62437
2712,0,-4.31064
2714,0,-4.43077
2716,0,-4.15038
2718,0,-4.82488
2720,0,-4.66433
2722,0,-4.4786
2724,0,-4.53368
2726,0,-4.22221
2728,0,-4.20988
2730,0,-4.19807
2732,0,-4.37744
2734,0,-4.47505
2736,0,-4.32026
2738,0,-4.60793
2740,0,-4.73326
2742,0,-4.25043
2744,0,-3.91994
2746,0,-4.08688
2748,0,-4.0527
2750,0,-3.9139
2752,0,-3.92261
2754,0,-4.16068
2756,0,-4.08508
2758,0,-3.98487
2760,0,-4.41541
2762,0,-4.16298
2764,0,-3.94012
2766,0,-3.91763
2768,0,-3.7332
2770,0,-3.87365
2772,0,-3.70177
2774,0,-4.01503
2776,0,-4.26461
2778,0,-4.2563
2780,0,-4.39042
2782,0,-4.22236
2784,0,-4.32994
2786,0,-4.18379
2788,0,-3.92184
2790,0,-3.87091
2792,0,-3.98937
2794,0,-4.36363
2796,0,-4.51961
2798,0,-4.76684
2800,0,-4.68175
2802,0,-4.59962
2804,0,-4.4189
2806,0,-4.40509
2808,0,-4.1687
2810,0,-3.93031
2812,0,-3.87266
2814,0,-4.0064
2816,0,-4.07388
2818,0,-4.21757
2820,0,-4.68657
2822,0,-4.18303
2824,0,-4.24547
2826,0,-4.22838
2828,0,-4.38534
2830,0,-3.955
2832,0,-4.16026
2834,0,-4.3855
2836,0,-4.4962
2838,0,-4.74482
2840,0,-4.81698
2842,0,-4.52701
2844,0,-4.32396
2846,0,-4.31633
2848,0,-4.1588
2850,0,-4.17981
2852,0,-4.00341
2854,0,-4.20359
2856,0,-4.3388
2858,0,-4.32581
2860,0,-4.64782
2862,0,-4.87024
2864,0,-4.69129
2866,0,-4.53004
2868,0,-4.26697
2870,0,-4.31464
2872,0,-4.28521
2874,0,-4.71311
2876,0,-4.88456
2878,0,-4.51632
2880,0,-4.49381
2882,0,-4.5091
2884,0,-5.14669
2886,0,-5.02529
2888,0,-4.68379
2890,0,-4.54592
2892,0,-5.04225
2894,0,-5.21093
2896,0,-5.17607
2898,0,-5.06465
2900,0,-4.82771
2902,0,-4.77867
2904,0,-4.47312
2906,0,-4.61104
2908,0,-4.46737
2910,0,-4.71102
2912,0,-4.58319
2914,0,-4.88891
2916,0,-4.88454
2918,0,-5.02787
2920,0,-5.11089
2922,0,-5.0679
2924,0,-4.93779
2926,0,-4.93866
2928,0,-5.09227
2930,0,-5.16787
2932,0,-5.53985
2934,0,-5.46291
2936,0,-5.13879
2938,0,-5.22965
2940,0,-5.37893
2942,0,-5.49419
2944,0,-5.07047
2946,0,-4.71265
2948,0,-4.81148
2950,0,-4.95954
2952,0,-4.69735
2954,0,-4.71131
2956,0,-5.19026
2958,0,-5.44915
2960,0,-5.82247
2962,0,-5.92852
2964,0,-5.15585
2966,0,-5.09086
2968,0,-5.10594
2970,0,-5.30203
2972,0,-5.53572
2974,0,-5.71027
2976,0,-5.65766
2978,0,-5.98798
2980,0,-5.82089
2982,0,-5.40759
2984,0,-5.0395
2986,0,-5.10279
2988,0,-5.20921
2990,0,-5.10145
2992,0,-4.66849
2994,0,-4.74041
2996,0,-4.81795
2998,0,-4.70156
3000,0,-4.92048
3002,0,-5.09133
3004,0,-5.08525
3006,0,-4.82709
3008,0,-4.56216
3010,0,-4.57103
3012,0,-4.82816
3014,0,-4.67468
3016,0,-4.64763
3018,0,-4.89075
3020,0,-5.22999
3022,0,-5.351
3024,0,-5.09892
3026,0,-4.99366
3028,0,-4.60693
3030,0,-4.47819
3032,0,-4.06522
3034,0,-4.29506
3036,0,-4.58239
3038,0,-4.40895
3040,0,-4.58401
3042,0,-4.61767
3044,0,-4.65758
3046,0,-4.91055
3048,0,-5.39447
3050,0,-5.44234
3052,0,-5.31296
3054,0,-5.1496
3056,0,-5.06667
3058,0,-5.30235
3060,0,-5.30159
3062,0,-4.9887
3064,0,-4.83381
3066,0,-4.83099
3068,0,-4.79631
3070,0,-4.83292
3072,0,-5.03657
3074,0,-4.88949
3076,0,-4.86217
3078,0,-5.50675
3080,0,-5.33091
3082,0,-4.78661
3084,0,-4.38674
3086,0,-4.12946
3088,0,-4.25359
3090,0,-4.78835
3092,0,-4.71934
3094,0,-5.20663
3096,0,-5.12743
3098,0,-5.14412
3100,0,-5.03687
3102,0,-4.73533
3104,0,-4.72039
3106,0,-4.76326
3108,0,-4.41362
3110,0,-3.93598
3112,0,-4.67778
3114,0,-4.57037
3116,0,-4.73735
3118,0,-4.77127
3120,0,-4.68327
3122,0,-4.53035
3124,0,-4.2853
3126,0,-4.15277
3128,0,-3.91319
3130,0,-4.22015
3132,0,-4.33492
3134,0,-4.31902
3136,0,-4.78515
3138,0,-5.10858
3140,0,-5.45755
3142,0,-5.39862
3144,0,-5.14092
3146,0,-4.81659
3148,0,-4.58232
3150,0,-4.45342
3152,0,-4.59897
3154,0,-4.98563
3156,0,-4.81886
3158,0,-5.14802
3160,0,-5.56299
3162,0,-5.71466
3164,0,-5.3838
3166,0,-5.21692
3168,0,-4.89059
3170,0,-4.64109
3172,0,-4.48348
3174,0,-4.83834
3176,0,-4.70618
3178,0,-5.02327
3180,0,-5.44631
3182,0,-5.73413
3184,0,-5.84771
3186,0,-5.67628
3188,0,-5.69901
3190,0,-5.31245
3192,0,-5.35823
3194,0,-5.66275
3196,0,-5.27822
3198,0,-5.61167
3200,0,-5.64634
3202,0,-5.32998
3204,0,-5.97135
3206,0,-6.32678
3208,0,-5.88095
3210,0,-5.73797
3212,0,-5.50928
3214,0,-5.31081
3216,0,-4.98638
3218,0,-4.856
3220,0,-5.03667
3222,0,-5.05275
3224,0,-5.0711
3226,0,-4.96063
3228,0,-5.05888
3230,0,-5.16547
3232,0,-4.82617
3234,0,-4.84944
3236,0,-4.90527
3238,0,-4.74778
3240,0,-4.60398
3242,0,-4.8144
3244,0,-4.37053
3246,0,-4.52665
3248,0,-4.61245
3250,0,-4.42059
3252,0,-4.64846
3254,0,-4.64428
3256,0,-4.79236
3258,0,-4.97035
3260,0,-4.90265
3262,0,-4.73691
3264,0,-4.41259
3266,0,-4.6535
3268,0,-4.36098
3270,0,-4.60658
3272,0,-5.02782
3274,0,-4.9369
3276,0,-4.93455
3278,0,-4.92679
3280,0,-4.78732
3282,0,-4.56863
3284,0,-4.20305
3286,0,-4.11934
3288,0,-4.37093
3290,0,-4.22932
3292,0,-4.69169
3294,0,-4.91692
3296,0,-5.10046
3298,0,-5.04678
3300,0,-4.75213
3302,0,-4.70807
3304,0,-4.52628
3306,0,-4.42569
3308,0,-4.35639
3310,0,-4.46028
3312,0,-4.81875
3314,0,-4.94887
3316,0,-5.23249
3318,0,-5.08736
3320,0,-5.18601
3322,0,-5.03629
3324,0,-4.79453
3326,0,-4.86603
3328,0,-4.66373
3330,0,-4.49333
3332,0,-4.57606
3334,0,-4.68804
3336,0,-5.08499
3338,0,-5.54593
3340,0,-5.9542
3342,0,-5.80558
3344,0,-5.25081
3346,0,-5.10646
3348,0,-4.48853
3350,0,-4.8065
3352,0,-4.48457
3354,0,-4.53194
3356,0,-4.55443
3358,0,-4.83787
3360,0,-5.18736
3362,0,-5.47514
3364,0,-5.58675
3366,0,-5.58368
3368,0,-5.46552
3370,0,-5.213
3372,0,-5.22295
3374,0,-5.17711
3376,0,-4.94755
3378,0,-4.7629
3380,0,-4.59171
3382,0,-5.02886
3384,0,-5.18628
3386,0,-4.85084
3388,0,-4.96539
3390,0,-4.73092
3392,0,-4.93863
3394,0,-4.79925
3396,0,-4.72988
3398,0,-5.02239
3400,0,-5.1736
3402,0,-5.09491
3404,0,-4.91644
3406,0,-5.2899
3408,0,-5.29296
3410,0,-5.2507
3412,0,-5.28041
3414,0,-5.29423
3416,0,-5.63772
3418,0,-5.61059
3420,0,-5.62985
3422,0,-5.71274
3424,0,-5.39765
3426,0,-5.05037
3428,0,-5.74228
3430,0,-5.3926
3432,0,-5.36481
3434,0,-5.61658
3436,0,-5.75335
3438,0,-5.76161
3440,0,-5.7808
3442,0,-5.56412
3444,0,-5.05501
3446,0,-4.87535
3448,0,-4.66127
3450,0,-4.80607
3452,0,-5.12108
3454,0,-5.23295
3456,0,-5.02438
3458,0,-5.42605
3460,0,-5.21915
3462,0,-4.76152
3464,0,-5.08076
3466,0,-5.10576
3468,0,-5.37355
3470,0,-5.42459
3472,0,-5.66288
3474,0,-5.96995
3476,0,-6.3469
3478,0,-6.75413
3480,0,-6.75236
3482,0,-6.14755
3484,0,-5.76607
3486,0,-5.5133
3488,0,-5.75985
3490,0,-5.13025
3492,0,-5.27429
3494,0,-5.3756
3496,0,-5.51484
3498,0,-5.13342
